Depth (m)          Deflection (mm)                        
0.12000                 11.36628                        
0.24000                 11.30688                        
0.24000                 11.30688                        
0.36000                 11.21124                        
0.36000                 11.21124                        
0.48000                 11.08205                        
0.48000                 11.08205                        
0.60000                 10.92194                        
0.60000                 10.92194                        
0.72000                 10.73347                        
0.72000                 10.73347                        
0.84000                 10.51915                        
0.84000                 10.51915                        
0.96000                 10.28143                        
0.96000                 10.28143                        
1.08000                 10.02268                        
1.08000                 10.02268                        
1.20000                  9.74522                        
1.20000                  9.74522                        
1.32000                  9.45129                        
1.32000                  9.45129                        
1.44000                  9.14304                        
1.44000                  9.14304                        
1.56000                  8.82259                        
1.56000                  8.82259                        
1.68000                  8.49193                        
1.68000                  8.49193                        
1.80000                  8.15303                        
1.80000                  8.15303                        
1.92000                  7.80772                        
1.92000                  7.80772                        
2.04000                  7.45781                        
2.04000                  7.45781                        
2.16000                  7.10498                        
2.16000                  7.10498                        
2.28000                  6.75086                        
2.28000                  6.75086                        
2.40000                  6.39697                        
2.40000                  6.39697                        
2.52000                  6.04477                        
2.52000                  6.04477                        
2.64000                  5.69562                        
2.64000                  5.69562                        
2.76000                  5.35079                        
2.76000                  5.35079                        
2.88000                  5.01148                        
2.88000                  5.01148                        
3.00000                  4.67880                        
3.00000                  4.67880                        
3.12000                  4.35376                        
3.12000                  4.35376                        
3.24000                  4.03728                        
3.24000                  4.03728                        
3.36000                  3.73023                        
3.36000                  3.73023                        
3.48000                  3.43334                        
3.48000                  3.43334                        
3.60000                  3.14729                        
3.60000                  3.14729                        
3.72000                  2.87267                        
3.72000                  2.87267                        
3.84000                  2.60998                        
3.84000                  2.60998                        
3.96000                  2.35962                        
3.96000                  2.35962                        
4.08000                  2.12194                        
4.08000                  2.12194                        
4.20000                  1.89719                        
4.20000                  1.89719                        
4.32000                  1.68552                        
4.32000                  1.68552                        
4.44000                  1.48703                        
4.44000                  1.48703                        
4.56000                  1.30174                        
4.56000                  1.30174                        
4.68000                  1.12957                        
4.68000                  1.12957                        
4.80000                  0.97040                        
4.80000                  0.97040                        
4.92000                  0.82403                        
4.92000                  0.82403                        
5.04000                  0.69019                        
5.04000                  0.69019                        
5.16000                  0.56855                        
5.16000                  0.56855                        
5.28000                  0.45873                        
5.28000                  0.45873                        
5.40000                  0.36030                        
5.40000                  0.36030                        
5.52000                  0.27275                        
5.52000                  0.27275                        
5.64000                  0.19557                        
5.64000                  0.19557                        
5.76000                  0.12816                        
5.76000                  0.12816                        
5.88000                  0.06992                        
5.88000                  0.06992                        
6.00000                  0.02020                        
6.00000                  0.02020                        
6.12000                 -0.02167                        
6.12000                 -0.02167                        
6.24000                 -0.05636                        
6.24000                 -0.05636                        
6.36000                 -0.08453                        
6.36000                 -0.08453                        
6.48000                 -0.10685                        
6.48000                 -0.10685                        
6.60000                 -0.12394                        
6.60000                 -0.12394                        
6.72000                 -0.13639                        
6.72000                 -0.13639                        
6.84000                 -0.14476                        
6.84000                 -0.14476                        
6.96000                 -0.14958                        
6.96000                 -0.14958                        
7.08000                 -0.15136                        
7.08000                 -0.15136                        
7.20000                 -0.15055                        
7.20000                 -0.15055                        
7.32000                 -0.14758                        
7.32000                 -0.14758                        
7.44000                 -0.14284                        
7.44000                 -0.14284                        
7.56000                 -0.13668                        
7.56000                 -0.13668                        
7.68000                 -0.12944                        
7.68000                 -0.12944                        
7.80000                 -0.12140                        
7.80000                 -0.12140                        
7.92000                 -0.11282                        
7.92000                 -0.11282                        
8.04000                 -0.10392                        
8.04000                 -0.10392                        
8.16000                 -0.09490                        
8.16000                 -0.09490                        
8.28000                 -0.08592                        
8.28000                 -0.08592                        
8.40000                 -0.07712                        
8.40000                 -0.07712                        
8.52000                 -0.06860                        
8.52000                 -0.06860                        
8.64000                 -0.06045                        
8.64000                 -0.06045                        
8.76000                 -0.05274                        
8.76000                 -0.05274                        
8.88000                 -0.04551                        
8.88000                 -0.04551                        
9.00000                 -0.03880                        
9.00000                 -0.03880                        
9.12000                 -0.03261                        
9.12000                 -0.03261                        
9.24000                 -0.02696                        
9.24000                 -0.02696                        
9.36000                 -0.02184                        
9.36000                 -0.02184                        
9.48000                 -0.01724                        
9.48000                 -0.01724                        
9.60000                 -0.01314                        
9.60000                 -0.01314                        
9.72000                 -0.00951                        
9.72000                 -0.00951                        
9.84000                 -0.00632                        
9.84000                 -0.00632                        
9.96000                 -0.00355                        
9.96000                 -0.00355                        
10.08000                 -0.00116                        
10.08000                 -0.00116                        
10.20000                  0.00088                        
10.20000                  0.00088                        
10.32000                  0.00262                        
10.32000                  0.00262                        
10.44000                  0.00407                        
10.44000                  0.00407                        
10.56000                  0.00529                        
10.56000                  0.00529                        
10.68000                  0.00629                        
10.68000                  0.00629                        
10.80000                  0.00712                        
10.80000                  0.00712                        
10.92000                  0.00779                        
10.92000                  0.00779                        
11.04000                  0.00835                        
11.04000                  0.00835                        
11.16000                  0.00880                        
11.16000                  0.00880                        
11.28000                  0.00919                        
11.28000                  0.00919                        
11.40000                  0.00951                        
11.40000                  0.00951                        
11.52000                  0.00980                        
11.52000                  0.00980                        
11.64000                  0.01005                        
11.64000                  0.01005                        
11.76000                  0.01030                        
11.76000                  0.01030                        
11.88000                  0.01054                    

Depth (m)         Shear Force (kN)                        
0.12000                 98.22030                        
0.24000                 96.34586                        
0.24000                 96.34586                        
0.36000                 94.37909                        
0.36000                 94.37909                        
0.48000                 92.32259                        
0.48000                 92.32259                        
0.60000                 90.17917                        
0.60000                 90.17917                        
0.72000                 87.95175                        
0.72000                 87.95175                        
0.84000                 85.64347                        
0.84000                 85.64347                        
0.96000                 83.25757                        
0.96000                 83.25757                        
1.08000                 80.79747                        
1.08000                 80.79747                        
1.20000                 78.26670                        
1.20000                 78.26670                        
1.32000                 75.66894                        
1.32000                 75.66894                        
1.44000                 73.00798                        
1.44000                 73.00798                        
1.56000                 70.28773                        
1.56000                 70.28773                        
1.68000                 67.51223                        
1.68000                 67.51223                        
1.80000                 64.68560                        
1.80000                 64.68560                        
1.92000                 61.81208                        
1.92000                 61.81208                        
2.04000                 58.89602                        
2.04000                 58.89602                        
2.16000                 55.94182                        
2.16000                 55.94182                        
2.28000                 52.95402                        
2.28000                 52.95402                        
2.40000                 49.93722                        
2.40000                 49.93722                        
2.52000                 46.89611                        
2.52000                 46.89611                        
2.64000                 43.83544                        
2.64000                 43.83544                        
2.76000                 40.76007                        
2.76000                 40.76007                        
2.88000                 37.67490                        
2.88000                 37.67490                        
3.00000                 34.58491                        
3.00000                 34.58491                        
3.12000                 31.49517                        
3.12000                 31.49517                        
3.24000                 28.41078                        
3.24000                 28.41078                        
3.36000                 25.33693                        
3.36000                 25.33693                        
3.48000                 22.27886                        
3.48000                 22.27886                        
3.60000                 19.24190                        
3.60000                 19.24190                        
3.72000                 16.23140                        
3.72000                 16.23140                        
3.84000                 13.25283                        
3.84000                 13.25283                        
3.96000                 10.31170                        
3.96000                 10.31170                        
4.08000                  7.41363                        
4.08000                  7.41363                        
4.20000                  4.56431                        
4.20000                  4.56431                        
4.32000                  1.77717                        
4.32000                  1.77717                        
4.44000                 -0.91706                        
4.44000                 -0.91706                        
4.56000                 -3.49816                        
4.56000                 -3.49816                        
4.68000                 -5.96416                        
4.68000                 -5.96416                        
4.80000                 -8.31292                        
4.80000                 -8.31292                        
4.92000                -10.54212                        
4.92000                -10.54212                        
5.04000                -12.64912                        
5.04000                -12.64912                        
5.16000                -14.63087                        
5.16000                -14.63087                        
5.28000                -16.48364                        
5.28000                -16.48364                        
5.40000                -18.20280                        
5.40000                -18.20280                        
5.52000                -19.78227                        
5.52000                -19.78227                        
5.64000                -21.21369                        
5.64000                -21.21369                        
5.76000                -22.48502                        
5.76000                -22.48502                        
5.88000                -23.45041                        
5.88000                -23.45041                        
6.00000                -23.92595                        
6.00000                -23.92595                        
6.12000                -23.91140                        
6.12000                -23.91140                        
6.24000                -23.48730                        
6.24000                -23.48730                        
6.36000                -22.72697                        
6.36000                -22.72697                        
6.48000                -21.71996                        
6.48000                -21.71996                        
6.60000                -20.59031                        
6.60000                -20.59031                        
6.72000                -19.41649                        
6.72000                -19.41649                        
6.84000                -18.21332                        
6.84000                -18.21332                        
6.96000                -16.99230                        
6.96000                -16.99230                        
7.08000                -15.76265                        
7.08000                -15.76265                        
7.20000                -14.53199                        
7.20000                -14.53199                        
7.32000                -13.30668                        
7.32000                -13.30668                        
7.44000                -12.09218                        
7.44000                -12.09218                        
7.56000                -10.89315                        
7.56000                -10.89315                        
7.68000                 -9.71367                        
7.68000                 -9.71367                        
7.80000                 -8.55725                        
7.80000                 -8.55725                        
7.92000                 -7.42700                        
7.92000                 -7.42700                        
8.04000                 -6.32560                        
8.04000                 -6.32560                        
8.16000                 -5.27408                        
8.16000                 -5.27408                        
8.28000                 -4.30545                        
8.28000                 -4.30545                        
8.40000                 -3.43218                        
8.40000                 -3.43218                        
8.52000                 -2.65180                        
8.52000                 -2.65180                        
8.64000                 -1.96076                        
8.64000                 -1.96076                        
8.76000                 -1.35473                        
8.76000                 -1.35473                        
8.88000                 -0.82877                        
8.88000                 -0.82877                        
9.00000                 -0.37754                        
9.00000                 -0.37754                        
9.12000                  0.00456                        
9.12000                  0.00456                        
9.24000                  0.32325                        
9.24000                  0.32325                        
9.36000                  0.58425                        
9.36000                  0.58425                        
9.48000                  0.79317                        
9.48000                  0.79317                        
9.60000                  0.95548                        
9.60000                  0.95548                        
9.72000                  1.07638                        
9.72000                  1.07638                        
9.84000                  1.16081                        
9.84000                  1.16081                        
9.96000                  1.21336                        
9.96000                  1.21336                        
10.08000                  1.23830                        
10.08000                  1.23830                        
10.20000                  1.23951                        
10.20000                  1.23951                        
10.32000                  1.22051                        
10.32000                  1.22051                        
10.44000                  1.18446                        
10.44000                  1.18446                        
10.56000                  1.13411                        
10.56000                  1.13411                        
10.68000                  1.07191                        
10.68000                  1.07191                        
10.80000                  0.99992                        
10.80000                  0.99992                        
10.92000                  0.91991                        
10.92000                  0.91991                        
11.04000                  0.83333                        
11.04000                  0.83333                        
11.16000                  0.74135                        
11.16000                  0.74135                        
11.28000                  0.64491                        
11.28000                  0.64491                        
11.40000                  0.54471                        
11.40000                  0.54471                        
11.52000                  0.44125                        
11.52000                  0.44125                        
11.64000                  0.33489                        
11.64000                  0.33489                        
11.76000                  0.22583                        
11.76000                  0.22583                        
11.88000                  0.11419                        
                        
 Depth (m)            Moment (kN.m)                        
0.12000               -166.07631                        
0.24000               -154.40141                        
0.24000               -154.40141                        
0.36000               -142.95700                        
0.36000               -142.95700                        
0.48000               -131.75402                        
0.48000               -131.75402                        
0.60000               -120.80306                        
0.60000               -120.80306                        
0.72000               -110.11438                        
0.72000               -110.11438                        
0.84000                -99.69787                        
0.84000                -99.69787                        
0.96000                -89.56305                        
0.96000                -89.56305                        
1.08000                -79.71902                        
1.08000                -79.71902                        
1.20000                -70.17449                        
1.20000                -70.17449                        
1.32000                -60.93770                        
1.32000                -60.93770                        
1.44000                -52.01647                        
1.44000                -52.01647                        
1.56000                -43.41815                        
1.56000                -43.41815                        
1.68000                -35.14963                        
1.68000                -35.14963                        
1.80000                -27.21727                        
1.80000                -27.21727                        
1.92000                -19.62696                        
1.92000                -19.62696                        
2.04000                -12.38407                        
2.04000                -12.38407                        
2.16000                 -5.49344                        
2.16000                 -5.49344                        
2.28000                  1.04062                        
2.28000                  1.04062                        
2.40000                  7.21436                        
2.40000                  7.21436                        
2.52000                 13.02458                        
2.52000                 13.02458                        
2.64000                 18.46864                        
2.64000                 18.46864                        
2.76000                 23.54450                        
2.76000                 23.54450                        
2.88000                 28.25067                        
2.88000                 28.25067                        
3.00000                 32.58628                        
3.00000                 32.58628                        
3.12000                 36.55105                        
3.12000                 36.55105                        
3.24000                 40.14533                        
3.24000                 40.14533                        
3.36000                 43.37006                        
3.36000                 43.37006                        
3.48000                 46.22682                        
3.48000                 46.22682                        
3.60000                 48.71783                        
3.60000                 48.71783                        
3.72000                 50.84593                        
3.72000                 50.84593                        
3.84000                 52.61464                        
3.84000                 52.61464                        
3.96000                 54.02810                        
3.96000                 54.02810                        
4.08000                 55.09116                        
4.08000                 55.09116                        
4.20000                 55.80932                        
4.20000                 55.80932                        
4.32000                 56.18908                        
4.32000                 56.18908                        
4.44000                 56.23956                        
4.44000                 56.23956                        
4.56000                 55.97351                        
4.56000                 55.97351                        
4.68000                 55.40460                        
4.68000                 55.40460                        
4.80000                 54.54679                        
4.80000                 54.54679                        
4.92000                 53.41427                        
4.92000                 53.41427                        
5.04000                 52.02155                        
5.04000                 52.02155                        
5.16000                 50.38348                        
5.16000                 50.38348                        
5.28000                 48.51528                        
5.28000                 48.51528                        
5.40000                 46.43272                        
5.40000                 46.43272                        
5.52000                 44.15215                        
5.52000                 44.15215                        
5.64000                 41.69082                        
5.64000                 41.69082                        
5.76000                 39.06713                        
5.76000                 39.06713                        
5.88000                 36.30684                        
5.88000                 36.30684                        
6.00000                 33.45893                        
6.00000                 33.45893                        
6.12000                 30.58421                        
6.12000                 30.58421                        
6.24000                 27.73657                        
6.24000                 27.73657                        
6.36000                 24.96069                        
6.36000                 24.96069                        
6.48000                 22.29199                        
6.48000                 22.29199                        
6.60000                 19.75282                        
6.60000                 19.75282                        
6.72000                 17.35204                        
6.72000                 17.35204                        
6.84000                 15.09401                        
6.84000                 15.09401                        
6.96000                 12.98154                        
6.96000                 12.98154                        
7.08000                 11.01620                        
7.08000                 11.01620                        
7.20000                  9.19854                        
7.20000                  9.19854                        
7.32000                  7.52830                        
7.32000                  7.52830                        
7.44000                  6.00450                        
7.44000                  6.00450                        
7.56000                  4.62556                        
7.56000                  4.62556                        
7.68000                  3.38936                        
7.68000                  3.38936                        
7.80000                  2.29336                        
7.80000                  2.29336                        
7.92000                  1.33458                        
7.92000                  1.33458                        
8.04000                  0.50972                        
8.04000                  0.50972                        
8.16000                 -0.18557                        
8.16000                 -0.18557                        
8.28000                 -0.75938                        
8.28000                 -0.75938                        
8.40000                 -1.22270                        
8.40000                 -1.22270                        
8.52000                 -1.58682                        
8.52000                 -1.58682                        
8.64000                 -1.86270                        
8.64000                 -1.86270                        
8.76000                 -2.06081                        
8.76000                 -2.06081                        
8.88000                 -2.19104                        
8.88000                 -2.19104                        
9.00000                 -2.26270                        
9.00000                 -2.26270                        
9.12000                 -2.28442                        
9.12000                 -2.28442                        
9.24000                 -2.26414                        
9.24000                 -2.26414                        
9.36000                 -2.20914                        
9.36000                 -2.20914                        
9.48000                 -2.12601                        
9.48000                 -2.12601                        
9.60000                 -2.02065                        
9.60000                 -2.02065                        
9.72000                 -1.89835                        
9.72000                 -1.89835                        
9.84000                 -1.76377                        
9.84000                 -1.76377                        
9.96000                 -1.62103                        
9.96000                 -1.62103                        
10.08000                 -1.47367                        
10.08000                 -1.47367                        
10.20000                 -1.32478                        
10.20000                 -1.32478                        
10.32000                 -1.17700                        
10.32000                 -1.17700                        
10.44000                 -1.03254                        
10.44000                 -1.03254                        
10.56000                 -0.89330                        
10.56000                 -0.89330                        
10.68000                 -0.76083                        
10.68000                 -0.76083                        
10.80000                 -0.63643                        
10.80000                 -0.63643                        
10.92000                 -0.52117                        
10.92000                 -0.52117                        
11.04000                 -0.41591                        
11.04000                 -0.41591                        
11.16000                 -0.32138                        
11.16000                 -0.32138                        
11.28000                 -0.23817                        
11.28000                 -0.23817                        
11.40000                 -0.16676                        
11.40000                 -0.16676                        
11.52000                 -0.10757                        
11.52000                 -0.10757                        
11.64000                 -0.06097                        
11.64000                 -0.06097                        
11.76000                 -0.02730                        
11.76000                 -0.02730                        
11.88000                 -0.00688                        
                        

Depth (m)   Soil Resistance (kN/m)                        
0.12000                 15.22502                        
0.24000                 16.00443                        
0.24000                 16.00443                        
0.36000                 16.76288                        
0.36000                 16.76288                        
0.48000                 17.49885                        
0.48000                 17.49885                        
0.60000                 18.21089                        
0.60000                 18.21089                        
0.72000                 18.89765                        
0.72000                 18.89765                        
0.84000                 19.55783                        
0.84000                 19.55783                        
0.96000                 20.19022                        
0.96000                 20.19022                        
1.08000                 20.79363                        
1.08000                 20.79363                        
1.20000                 21.36698                        
1.20000                 21.36698                        
1.32000                 21.90919                        
1.32000                 21.90919                        
1.44000                 22.41925                        
1.44000                 22.41925                        
1.56000                 22.89621                        
1.56000                 22.89621                        
1.68000                 23.33915                        
1.68000                 23.33915                        
1.80000                 23.74718                        
1.80000                 23.74718                        
1.92000                 24.11947                        
1.92000                 24.11947                        
2.04000                 24.45522                        
2.04000                 24.45522                        
2.16000                 24.75365                        
2.16000                 24.75365                        
2.28000                 25.01404                        
2.28000                 25.01404                        
2.40000                 25.23569                        
2.40000                 25.23569                        
2.52000                 25.41792                        
2.52000                 25.41792                        
2.64000                 25.56009                        
2.64000                 25.56009                        
2.76000                 25.66157                        
2.76000                 25.66157                        
2.88000                 25.72178                        
2.88000                 25.72178                        
3.00000                 25.74013                        
3.00000                 25.74013                        
3.12000                 25.71606                        
3.12000                 25.71606                        
3.24000                 25.64901                        
3.24000                 25.64901                        
3.36000                 25.53846                        
3.36000                 25.53846                        
3.48000                 25.38384                        
3.48000                 25.38384                        
3.60000                 25.18460                        
3.60000                 25.18460                        
3.72000                 24.94017                        
3.72000                 24.94017                        
3.84000                 24.64993                        
3.84000                 24.64993                        
3.96000                 24.31321                        
3.96000                 24.31321                        
4.08000                 23.92925                        
4.08000                 23.92925                        
4.20000                 23.49721                        
4.20000                 23.49721                        
4.32000                 22.89393                        
4.32000                 22.89393                        
4.44000                 21.95748                        
4.44000                 21.95748                        
4.56000                 21.00471                        
4.56000                 21.00471                        
4.68000                 20.03458                        
4.68000                 20.03458                        
4.80000                 19.04553                        
4.80000                 19.04553                        
4.92000                 18.03531                        
4.92000                 18.03531                        
5.04000                 17.00063                        
5.04000                 17.00063                        
5.16000                 15.93671                        
5.16000                 15.93671                        
5.28000                 14.83641                        
5.28000                 14.83641                        
5.40000                 13.68869                        
5.40000                 13.68869                        
5.52000                 12.47570                        
5.52000                 12.47570                        
5.64000                 11.16624                        
5.64000                 11.16624                        
5.76000                  9.69903                        
5.76000                  9.69903                        
5.88000                  6.24349                        
5.88000                  6.24349                        
6.00000                  1.80394                        
6.00000                  1.80394                        
6.12000                 -1.93452                        
6.12000                 -1.93452                        
6.24000                 -5.03203                        
6.24000                 -5.03203                        
6.36000                 -7.54820                        
6.36000                 -7.54820                        
6.48000                 -9.12863                        
6.48000                 -9.12863                        
6.60000                 -9.59132                        
6.60000                 -9.59132                        
6.72000                 -9.90221                        
6.72000                 -9.90221                        
6.84000                -10.10081                        
6.84000                -10.10081                        
6.96000                -10.21185                        
6.96000                -10.21185                        
7.08000                -10.25213                        
7.08000                -10.25213                        
7.20000                -10.23379                        
7.20000                -10.23379                        
7.32000                -10.16598                        
7.32000                -10.16598                        
7.44000                -10.05590                        
7.44000                -10.05590                        
7.56000                 -9.90935                        
7.56000                 -9.90935                        
7.68000                 -9.73114                        
7.68000                 -9.73114                        
7.80000                 -9.52531                        
7.80000                 -9.52531                        
7.92000                 -9.29535                        
7.92000                 -9.29535                        
8.04000                 -9.04427                        
8.04000                 -9.04427                        
8.16000                 -8.47363                        
8.16000                 -8.47363                        
8.28000                 -7.67193                        
8.28000                 -7.67193                        
8.40000                 -6.88595                        
8.40000                 -6.88595                        
8.52000                 -6.12541                        
8.52000                 -6.12541                        
8.64000                 -5.39798                        
8.64000                 -5.39798                        
8.76000                 -4.70944                        
8.76000                 -4.70944                        
8.88000                 -4.06397                        
8.88000                 -4.06397                        
9.00000                 -3.46431                        
9.00000                 -3.46431                        
9.12000                 -2.91198                        
9.12000                 -2.91198                        
9.24000                 -2.40744                        
9.24000                 -2.40744                        
9.36000                 -1.95029                        
9.36000                 -1.95029                        
9.48000                 -1.53939                        
9.48000                 -1.53939                        
9.60000                 -1.17299                        
9.60000                 -1.17299                        
9.72000                 -0.84891                        
9.72000                 -0.84891                        
9.84000                 -0.56459                        
9.84000                 -0.56459                        
9.96000                 -0.31722                        
9.96000                 -0.31722                        
10.08000                 -0.10380                        
10.08000                 -0.10380                        
10.20000                  0.07873                        
10.20000                  0.07873                        
10.32000                  0.23351                        
10.32000                  0.23351                        
10.44000                  0.36361                        
10.44000                  0.36361                        
10.56000                  0.47207                        
10.56000                  0.47207                        
10.68000                  0.56179                        
10.68000                  0.56179                        
10.80000                  0.63556                        
10.80000                  0.63556                        
10.92000                  0.69597                        
10.92000                  0.69597                        
11.04000                  0.74545                        
11.04000                  0.74545                        
11.16000                  0.78619                        
11.16000                  0.78619                        
11.28000                  0.82018                        
11.28000                  0.82018                        
11.40000                  0.84916                        
11.40000                  0.84916                        
11.52000                  0.87462                        
11.52000                  0.87462                        
11.64000                  0.89781                        
11.64000                  0.89781                        
11.76000                  0.91969                        
11.76000                  0.91969                        
11.88000                  0.94098                        
                        
